TITLE	LT-1445-950-P2
DATA TYPE	
ORIGIN	JASCO
OWNER	
DATE	23/10/10
TIME	17:01:21
SPECTROMETER/DATA SYSTEM	JASCO Corp., J-810, Rev. 1.00
RESOLUTION	
DELTAX	-1
XUNITS	NANOMETERS
YUNITS	CD[mdeg]
Y2UNITS	HT[V]
Y3UNITS	ABSORBANCE
FIRSTX	400.0000
LASTX	200.0000
NPOINTS	201
FIRSTY	-0.41294
MAXY	31.19506
MINY	-21.88199
XYDATA
400.0000	-0.412939	304.653	0.000403787
399.0000	-0.467099	303.295	-0.000685494
398.0000	-0.184546	301.928	0.000439237
397.0000	0.33898	300.628	0.00210253
396.0000	0.041626	299.517	0.000500208
395.0000	-0.122278	298.885	-0.000909181
394.0000	0.0228119	298.811	0.000904882
393.0000	-0.0352448	298.65	0.00095993
392.0000	0.00143433	298.457	0.000685807
391.0000	-0.0469238	298.248	0.00135846
390.0000	-0.254794	297.873	0.0023642
389.0000	-0.106961	297.502	0.00327895
388.0000	-0.209988	297.198	0.00264214
387.0000	-0.075119	296.899	0.00248511
386.0000	0.418143	296.493	0.0024621
385.0000	0.291351	295.903	0.00206391
384.0000	-0.1556	295.236	0.0019208
383.0000	0.144666	294.634	0.00152879
382.0000	0.242996	294.016	0.00189474
381.0000	-0.87175	293.374	0.0022476
380.0000	-0.823178	292.776	0.00277385
379.0000	-0.357422	292.305	0.00353584
378.0000	-0.359991	291.881	0.00410966
377.0000	0.200018	291.433	0.00436047
376.0000	0.0947388	291.09	0.00450037
375.0000	-0.0434876	290.834	0.0052444
374.0000	-0.161887	290.434	0.00554312
373.0000	-0.394305	289.967	0.00650296
372.0000	-0.390906	289.556	0.00778854
371.0000	0.152182	289.124	0.00732715
370.0000	0.306961	288.724	0.00777824
369.0000	-0.00556336	288.298	0.00782823
368.0000	-0.00458986	288.028	0.00847777
367.0000	0.0874085	287.803	0.00917232
366.0000	-0.00121154	287.505	0.00968435
365.0000	0.390314	287.352	0.0111282
364.0000	0.333218	287.354	0.0131789
363.0000	0.201581	287.235	0.0139513
362.0000	0.229367	286.982	0.0139545
361.0000	-0.173654	286.886	0.0156774
360.0000	0.139911	286.745	0.017325
359.0000	0.195905	286.711	0.0191665
358.0000	0.16767	286.706	0.0211157
357.0000	0.264062	286.649	0.0229209
356.0000	-0.238831	286.665	0.0253803
355.0000	-0.288931	286.777	0.0280246
354.0000	0.297629	286.918	0.0312172
353.0000	-0.167847	287.082	0.0346464
352.0000	-0.0962006	287.225	0.0376765
351.0000	-0.33497	287.396	0.0408513
350.0000	-0.316186	287.68	0.045615
349.0000	0.193011	287.965	0.0502751
348.0000	0.292786	288.31	0.0559922
347.0000	-0.0588806	288.701	0.0628504
346.0000	-0.0247772	289.187	0.0693288
345.0000	-0.0978637	289.714	0.0751544
344.0000	-0.0865235	290.216	0.0824245
343.0000	-0.0340454	290.856	0.0913949
342.0000	0.116025	291.704	0.102369
341.0000	-0.404916	292.639	0.114003
340.0000	-0.504184	293.622	0.126047
339.0000	-0.0954987	294.759	0.139248
338.0000	0.181396	296.003	0.153842
337.0000	0.383694	297.458	0.171011
336.0000	0.350348	299.061	0.190149
335.0000	0.210239	300.925	0.210632
334.0000	-0.101404	303.016	0.232481
333.0000	0.535822	305.318	0.256914
332.0000	0.425928	307.77	0.283876
331.0000	0.533929	310.425	0.311529
330.0000	0.713062	313.286	0.342026
329.0000	1.08211	316.308	0.374669
328.0000	0.806906	319.59	0.407968
327.0000	0.157358	322.91	0.440874
326.0000	0.192145	326.328	0.475829
325.0000	0.467978	330.078	0.514042
324.0000	0.526886	333.809	0.553253
323.0000	0.629034	337.379	0.590996
322.0000	0.921594	341.021	0.627907
321.0000	0.414194	345.05	0.664896
320.0000	0.593292	349.092	0.702146
319.0000	0.411331	352.921	0.737518
318.0000	0.777225	356.581	0.771633
317.0000	0.516934	360.081	0.804503
316.0000	0.979959	363.446	0.834792
315.0000	0.995935	366.664	0.863657
314.0000	1.23292	369.637	0.892021
313.0000	1.36519	372.263	0.917527
312.0000	-0.107669	374.695	0.940665
311.0000	0.560089	377.371	0.962534
310.0000	1.41387	380.086	0.983406
309.0000	0.491006	382.309	1.00089
308.0000	1.43478	384.459	1.01921
307.0000	1.57538	386.376	1.03497
306.0000	0.330161	387.98	1.04694
305.0000	0.967297	389.294	1.05694
304.0000	2.04407	390.646	1.06685
303.0000	1.82696	391.973	1.0759
302.0000	1.66795	393.128	1.08447
301.0000	1.11839	394.27	1.09309
300.0000	1.52183	395.511	1.10235
299.0000	2.28891	396.756	1.11079
298.0000	1.71137	398.089	1.11966
297.0000	1.54312	399.583	1.13106
296.0000	1.71123	401.262	1.14323
295.0000	2.55819	402.906	1.15445
294.0000	1.82461	404.654	1.1672
293.0000	1.57733	406.675	1.18216
292.0000	1.73094	408.819	1.19907
291.0000	2.15958	410.849	1.21858
290.0000	2.84124	413.606	1.23751
289.0000	2.35276	417.331	1.25858
288.0000	2.25848	420.688	1.28138
287.0000	2.37241	424.095	1.30428
286.0000	2.0121	427.461	1.32591
285.0000	2.3386	430.638	1.34585
284.0000	3.05914	433.754	1.36522
283.0000	2.93115	436.794	1.38423
282.0000	1.50477	439.393	1.39923
281.0000	1.82672	441.623	1.41128
280.0000	3.01913	443.692	1.42187
279.0000	1.94669	445.624	1.43068
278.0000	1.7335	447.236	1.43746
277.0000	3.20823	448.648	1.44196
276.0000	1.80396	449.709	1.44466
275.0000	1.8781	450.348	1.4445
274.0000	4.42753	450.464	1.44099
273.0000	5.48231	450.373	1.43594
272.0000	4.24412	450.223	1.43039
271.0000	3.86685	449.699	1.42086
270.0000	4.8716	449.008	1.40875
269.0000	4.17316	448.145	1.39509
268.0000	4.5956	447.092	1.38001
267.0000	5.93465	446.055	1.36451
266.0000	7.20481	445.038	1.35015
265.0000	7.29153	444.167	1.336
264.0000	8.71995	443.138	1.31916
263.0000	10.6539	442.218	1.30129
262.0000	13.0496	441.72	1.28758
261.0000	14.4739	441.44	1.27686
260.0000	14.5993	441.505	1.26836
259.0000	16.2784	442.11	1.26436
258.0000	17.9467	443.269	1.26414
257.0000	19.6222	444.716	1.26594
256.0000	21.8571	446.865	1.27229
255.0000	22.7561	449.557	1.28233
254.0000	24.2513	452.557	1.29422
253.0000	27.6384	456.173	1.31026
252.0000	25.0705	460.355	1.33011
251.0000	25.3273	465.178	1.35352
250.0000	28.1955	470.255	1.37879
249.0000	31.1951	475.423	1.40457
248.0000	31.0802	480.124	1.42932
247.0000	30.0298	483.844	1.44749
246.0000	27.8216	486.371	1.45533
245.0000	25.1983	487.441	1.45403
244.0000	24.8521	487.685	1.44896
243.0000	22.9033	487.705	1.44115
242.0000	18.6035	487.999	1.43487
241.0000	15.616	488.939	1.43253
240.0000	13.9313	490.779	1.43523
239.0000	10.9168	493.451	1.44293
238.0000	6.62374	496.923	1.45571
237.0000	0.768308	500.863	1.47083
236.0000	-1.97296	505.21	1.48925
235.0000	-6.29559	509.65	1.5081
234.0000	-9.55586	513.837	1.52342
233.0000	-9.476	518.188	1.54029
232.0000	-10.8324	522.326	1.55643
231.0000	-12.06	526.153	1.56932
230.0000	-13.4392	529.52	1.58074
229.0000	-14.8394	532.352	1.58826
228.0000	-17.8271	534.945	1.59199
227.0000	-19.8792	536.864	1.59331
226.0000	-21.882	538.225	1.59177
225.0000	-18.1648	539.152	1.58842
224.0000	-15.7442	539.436	1.5812
223.0000	-15.8662	539.133	1.5692
222.0000	-14.2587	538.583	1.55651
221.0000	-11.4765	538.2	1.54615
220.0000	-12.4073	537.945	1.53656
219.0000	-12.871	537.813	1.52728
218.0000	-12.03	537.998	1.52071
217.0000	-11.7524	538.641	1.51797
216.0000	-10.16	539.564	1.51725
215.0000	-11.324	540.727	1.51862
214.0000	-12.624	542.041	1.5217
213.0000	-8.38701	543.628	1.52721
212.0000	-9.49884	545.332	1.53221
211.0000	-9.38848	547.477	1.53943
210.0000	-7.95468	550.058	1.55032
209.0000	-9.54814	553.041	1.5636
208.0000	-9.58365	556.918	1.57929
207.0000	-9.71119	561.866	1.6017
206.0000	-6.30986	568.545	1.63437
205.0000	-4.92359	577.066	1.67421
204.0000	-8.97231	587.383	1.72109
203.0000	-6.57819	599.416	1.77371
202.0000	-4.83333	612.774	1.82301
201.0000	-3.48719	627.138	1.85961
200.0000	-2.79381	641.46	1.88508
