TITLE	LT-1445-950-P1
DATA TYPE	
ORIGIN	JASCO
OWNER	
DATE	23/10/10
TIME	16:57:25
SPECTROMETER/DATA SYSTEM	JASCO Corp., J-810, Rev. 1.00
RESOLUTION	
DELTAX	-1
XUNITS	NANOMETERS
YUNITS	CD[mdeg]
Y2UNITS	HT[V]
Y3UNITS	ABSORBANCE
FIRSTX	400.0000
LASTX	200.0000
NPOINTS	201
FIRSTY	0.43604
MAXY	13.74991
MINY	-35.20670
XYDATA
400.0000	0.436035	304.52	-0.000992656
399.0000	0.183481	303.286	-0.000782236
398.0000	-0.449991	301.91	0.000247424
397.0000	0.0299774	300.456	0.000271304
396.0000	0.265817	299.457	-0.000141442
395.0000	-0.0767456	298.964	-6.9405E-005
394.0000	0.0528687	298.736	9.93516E-005
393.0000	0.231641	298.546	-0.000156454
392.0000	-0.081308	298.46	0.000716773
391.0000	-0.559497	298.251	0.00139074
390.0000	-0.203494	297.855	0.00217228
389.0000	-0.573694	297.486	0.00311399
388.0000	-0.591638	297.137	0.00199033
387.0000	-0.310855	296.844	0.00189764
386.0000	-0.232785	296.377	0.00122185
385.0000	-0.364404	295.883	0.00184887
384.0000	-0.183142	295.307	0.00268497
383.0000	-0.29736	294.825	0.00358972
382.0000	-0.00944517	294.312	0.00508326
381.0000	-0.63569	293.664	0.00537736
380.0000	-0.427975	292.944	0.00459475
379.0000	-0.431058	292.469	0.00530676
378.0000	-0.305521	291.996	0.00535425
377.0000	0.686313	291.577	0.00592298
376.0000	0.179388	291.348	0.00730577
375.0000	-0.129523	291.021	0.00727415
374.0000	-0.0509308	290.58	0.00713456
373.0000	-0.327103	290.12	0.00816873
372.0000	-0.164883	289.796	0.0104056
371.0000	-0.0297424	289.427	0.0106243
370.0000	0.143039	289.02	0.0109987
369.0000	0.207843	288.636	0.0115193
368.0000	-0.0764191	288.413	0.0126815
367.0000	0.288702	288.21	0.0136251
366.0000	-0.150107	287.936	0.0143958
365.0000	0.236993	287.82	0.0162513
364.0000	0.20433	287.761	0.0176314
363.0000	0.0412476	287.676	0.0187746
362.0000	0.417798	287.554	0.0202101
361.0000	-0.240762	287.423	0.0215503
360.0000	0.145084	287.33	0.0237308
359.0000	-0.128821	287.375	0.0264327
358.0000	-0.27511	287.389	0.0286018
357.0000	0.0192932	287.378	0.0309048
356.0000	-0.188208	287.475	0.0342478
355.0000	-0.455493	287.663	0.0377271
354.0000	-0.20592	287.818	0.0410651
353.0000	0.0161621	288.033	0.0450431
352.0000	-0.0288208	288.282	0.049237
351.0000	-0.601007	288.58	0.0537977
350.0000	-0.196582	289.017	0.0602092
349.0000	0.113544	289.357	0.0654575
348.0000	0.072641	289.857	0.0728669
347.0000	-0.0846252	290.548	0.0829651
346.0000	-0.0751221	291.082	0.0899404
345.0000	-0.341534	291.766	0.0974433
344.0000	-0.122809	292.654	0.108864
343.0000	0.184308	293.585	0.120942
342.0000	-0.402374	294.532	0.132936
341.0000	-0.57738	295.694	0.146943
340.0000	-0.330536	297.019	0.162592
339.0000	-0.366205	298.547	0.179872
338.0000	-0.348215	300.305	0.199826
337.0000	-0.415704	302.306	0.22263
336.0000	-0.368802	304.47	0.247505
335.0000	-0.189551	306.952	0.274229
334.0000	-0.660608	309.658	0.302181
333.0000	-0.355972	312.642	0.333321
332.0000	-0.407581	315.963	0.368795
331.0000	-0.513171	319.552	0.405445
330.0000	0.224527	323.422	0.445521
329.0000	0.0161102	327.58	0.488804
328.0000	-0.768555	331.988	0.532381
327.0000	-0.649683	336.595	0.576919
326.0000	-0.759985	341.432	0.624512
325.0000	-1.42015	346.441	0.673425
324.0000	-1.35852	351.494	0.723679
323.0000	-0.597791	356.525	0.773555
322.0000	-0.153049	361.759	0.823475
321.0000	-0.772552	367.42	0.873291
320.0000	-0.801581	373.009	0.922237
319.0000	-0.720093	378.325	0.968552
318.0000	-1.89323	383.39	1.01268
317.0000	-1.71912	388.196	1.05454
316.0000	-1.4844	392.869	1.09366
315.0000	-2.30993	397.36	1.13093
314.0000	-2.02958	401.445	1.16633
313.0000	-3.24059	405.135	1.19855
312.0000	-2.80124	408.718	1.22912
311.0000	-1.1888	412.461	1.25737
310.0000	-0.281381	416.164	1.28381
309.0000	-3.25033	419.319	1.3067
308.0000	-2.72353	421.974	1.32706
307.0000	-1.21207	424.454	1.34547
306.0000	-2.28518	426.751	1.3613
305.0000	-2.68069	428.748	1.37529
304.0000	-2.87554	430.471	1.38674
303.0000	-3.37686	432.121	1.39698
302.0000	-2.69359	433.727	1.40784
301.0000	-2.56028	435.355	1.41898
300.0000	-2.19183	436.948	1.42965
299.0000	-1.62792	438.408	1.43828
298.0000	-2.15984	440.185	1.44838
297.0000	-3.00904	442.214	1.46146
296.0000	-4.04915	444.153	1.47317
295.0000	-3.77181	446.213	1.48509
294.0000	-2.99805	448.721	1.5008
293.0000	-2.82171	451.49	1.51831
292.0000	-4.43914	454.348	1.53745
291.0000	-3.22943	457.122	1.55955
290.0000	-2.23654	460.717	1.58091
289.0000	-2.18819	465.358	1.60391
288.0000	-3.09204	469.626	1.62919
287.0000	-3.74815	473.885	1.65422
286.0000	-2.38498	478.207	1.67886
285.0000	-3.12712	482.296	1.70182
284.0000	-2.33497	486.151	1.72322
283.0000	-2.70869	489.755	1.74331
282.0000	-3.79363	492.938	1.76057
281.0000	-3.88134	495.74	1.77543
280.0000	-3.24535	498.23	1.78789
279.0000	-4.31841	500.352	1.79712
278.0000	-5.25179	502.216	1.80485
277.0000	-6.51406	503.704	1.80924
276.0000	-4.78761	504.802	1.81173
275.0000	-3.68298	505.473	1.81151
274.0000	-3.51838	505.675	1.8085
273.0000	-2.66568	505.675	1.80407
272.0000	-2.28519	505.272	1.79695
271.0000	-2.64832	504.416	1.78551
270.0000	-5.08358	503.279	1.77081
269.0000	-7.89366	502.15	1.75579
268.0000	-9.41931	500.692	1.73852
267.0000	-9.37056	498.977	1.71905
266.0000	-7.9874	497.179	1.70002
265.0000	-10.2314	495.648	1.68193
264.0000	-12.5945	494.276	1.66325
263.0000	-13.5341	492.891	1.6427
262.0000	-13.2367	491.97	1.62643
261.0000	-13.3361	491.319	1.61338
260.0000	-15.7767	491.039	1.60259
259.0000	-20.2097	491.381	1.59664
258.0000	-22.8565	492.207	1.5938
257.0000	-25.0068	493.446	1.59369
256.0000	-26.4336	495.61	1.59933
255.0000	-27.1695	498.422	1.60914
254.0000	-31.4844	501.472	1.62022
253.0000	-31.8222	505.324	1.63641
252.0000	-33.0894	509.818	1.65669
251.0000	-35.2067	515.064	1.68094
250.0000	-34.4154	520.73	1.708
249.0000	-30.86	526.255	1.73401
248.0000	-30.9286	531.11	1.75789
247.0000	-30.7896	534.875	1.77486
246.0000	-29.3127	537.117	1.77994
245.0000	-24.3538	537.677	1.77507
244.0000	-21.3987	537.17	1.76525
243.0000	-21.7697	536.618	1.75388
242.0000	-15.211	536.53	1.74512
241.0000	-13.1571	537.132	1.74033
240.0000	-12.2801	538.585	1.73995
239.0000	-7.89436	540.9	1.74447
238.0000	-1.31242	543.903	1.75309
237.0000	-0.0290955	547.587	1.76522
236.0000	-1.36331	551.428	1.77899
235.0000	3.71117	555.051	1.79131
234.0000	7.82966	558.318	1.79962
233.0000	8.70099	561.376	1.80722
232.0000	8.87006	564.038	1.81314
231.0000	11.5692	566.488	1.81658
230.0000	10.9572	568.559	1.81924
229.0000	10.4037	570.265	1.81922
228.0000	9.63113	571.657	1.81507
227.0000	7.12247	572.528	1.80964
226.0000	11.0501	573.037	1.80268
225.0000	13.7499	573.092	1.79391
224.0000	13.5343	572.777	1.78308
223.0000	12.0747	572.259	1.76988
222.0000	11.6406	571.553	1.7564
221.0000	11.5854	570.864	1.74432
220.0000	9.80127	570.355	1.73328
219.0000	7.78727	570.031	1.7229
218.0000	7.1042	569.928	1.71457
217.0000	6.0423	570.076	1.70872
216.0000	7.85729	570.466	1.70462
215.0000	8.36995	571.079	1.70245
214.0000	7.30083	571.799	1.70169
213.0000	3.77768	572.662	1.70255
212.0000	5.63964	573.686	1.70314
211.0000	8.44985	574.833	1.704
210.0000	5.40132	576.217	1.70729
209.0000	6.26027	577.813	1.71181
208.0000	8.30961	579.812	1.71575
207.0000	5.00082	582.415	1.72357
206.0000	7.49606	585.722	1.73558
205.0000	6.14159	589.672	1.74789
204.0000	3.20283	594.073	1.7598
203.0000	-0.952899	598.652	1.76934
202.0000	2.69032	603.111	1.77219
201.0000	1.25669	607.022	1.76147
200.0000	-2.77044	610.262	1.73407